Time,Current (A),Power Output (W)
0.001,55.81,261.099
0.373,55.39,258.578
0.75,54.82,254.143
1.155,53.42,246.098
1.535,52.01,245.044
1.918,50.95,231.533
2.267,47.12,226.262
2.618,47.1,225.339
2.965,47,221.287
3.315,46.65,224.624
3.664,47.75,224.278
4.013,47.27,217.649
4.389,46.58,220.675
4.74,45.93,217.771
5.088,45.31,215.127
5.437,44.77,208.357
5.787,44.39,212.143
6.135,44.46,211.043
6.512,44.38,209.423
6.86,44.08,206.671
7.21,43.7,208.904
7.558,43.51,210.297
7.934,43.75,206.512
8.284,42.81,206.958
8.633,42.6,206.341
8.984,42.31,203.648
9.332,41.93,206.99
9.682,41.62,206.214
10.057,40.75,206.958
10.407,41.34,202.624
10.757,41.08,203.617
11.105,40.71,203.46
11.454,40.8,206.245
11.804,40.99,204.537
12.181,40.72,202.006
12.529,40.74,202.037
12.88,40.31,199.408
13.228,40.29,197.275
13.577,38.85,190.653
13.927,38.24,195.805
14.277,38.94,196.458
14.636,39.94,195.084
14.992,39.35,193.164
15.351,38.95,198.382
15.699,39.24,194.633
16.049,38.18,193.669
16.424,38.78,193.372
16.774,38.75,198.291
17.124,39.32,197.214
17.472,39.23,194.494
17.821,39.54,195.535
18.197,39.65,193.342
18.545,39.36,192.217
18.896,38.87,191.774
19.245,38.43,193.045
19.594,38.41,195.445
19.944,38.96,189.054
20.32,37.92,190.947
20.669,37.33,190.736
21.017,37.69,191.859
21.367,38.18,192.691
21.717,38.22,190.473
22.066,38.1,190.114
22.442,38.49,189.141
22.791,38.36,191.715
23.14,38.26,190.619
23.489,38.17,190.026
23.84,38.22,190.59
24.188,38.03,192.691
24.565,37.99,189.909
24.967,37.74,191.418
25.333,37.6,186.334
25.694,37.38,187.549
26.042,37.19,189.968
26.392,37.13,189.851
26.768,36.88,188.461
27.118,37.22,186.506
27.521,37.11,185.882
27.868,37.3,189.141
28.218,37.39,188.519
28.567,37.34,188.432
28.917,37.25,185.002
29.265,36.94,186.592
29.625,36.92,187.983
30.009,37.26,187.215
30.368,37.23,184.974
30.718,36.93,186.563
31.093,36.86,183.868
31.443,36.4,183.131
31.844,36.42,183.529
32.194,36.59,181.172
32.543,36.42,180.296
32.893,36.39,181.685
33.241,36.33,181.685
33.591,36.17,178.991
33.951,35.94,179.046
34.306,35.95,180.435
34.666,36.05,179.727
35.016,36.38,181.088
35.417,36.47,178.338
35.767,36.24,176.269
36.116,36.1,177.031
36.464,36.17,180.352
36.842,35.96,178.338
37.191,36.04,180.435
37.54,36.32,177.058
37.889,36.15,176.296
38.239,36.23,178.146
38.587,36.08,177.031
38.938,36.16,178.749
39.314,36.26,178.146
39.662,36.02,175.507
40.011,36.09,176.431
40.361,36.16,177.112
40.711,36.31,176.377
41.06,35.99,175.507
41.435,36.06,177.249
41.784,36.12,177.876
42.135,35.97,177.004
42.537,36.08,174.307
42.887,36.32,172.733
43.235,36.03,176.976
43.585,35.8,175.372
43.935,35.77,173.6
44.338,35.62,174.441
44.686,35.61,171.373
45.037,35.35,172.972
45.411,35.35,174.307
45.761,35.4,172.945
46.111,35.28,172.892
46.46,35.01,171.452
46.808,35.14,170.903
47.158,35.19,174.093
47.535,35.15,174.334
47.883,35.27,173.626
48.233,35.36,173.439
48.582,35.26,170.196
48.932,35.17,172.265
49.28,35.07,170.666
49.63,35.05,170.274
50.006,34.82,169.986
50.356,34.75,171.399
50.741,34.76,172.919
51.124,35.05,171.373
51.485,34.59,168.73
51.887,34.79,168.205
52.235,34.76,169.358
52.584,34.47,170.274
52.96,34.53,169.228
53.311,34.31,169.776
53.659,34.43,166.561
54.009,34.53,168.179
54.358,34.4,169.567
54.706,34.66,168.73
55.057,34.45,165.779
55.434,34.07,167.627
55.836,34.19,167.267
56.202,33.97,166.766
56.561,34.09,167.421
56.91,34.18,163.187
57.27,33.78,164.195
57.623,33.76,167.576
57.985,33.92,163.463
58.333,34,163.488
58.683,34.18,165.328
59.032,34.1,165.856
59.41,33.81,165.932
59.81,33.68,164.018
60.176,33.61,163.187
60.537,33.78,164.902
60.896,33.92,164.8
61.291,33.94,162.682
61.639,33.96,162.807
62.004,34.02,165.557
62.392,34.01,165.507
62.741,33.83,165.278
63.144,33.92,164.018
63.492,33.86,162.732
63.841,33.92,165.227
64.19,34.01,163.589
64.54,33.92,163.212
64.899,33.77,161.802
65.282,33.84,164.043
65.641,33.73,166.92
66.018,34,167.421
66.405,34,168.153
66.787,34.34,164.043
67.145,34.23,163.766
67.494,33.85,164.521
67.844,33.81,167.524
68.219,34.08,164.902
68.569,33.86,162.532
68.917,33.77,163.842
69.267,33.41,165.634
69.616,34.02,167.421
69.991,33.85,163.413
70.341,34.09,162.482
70.689,33.65,164.825
71.039,33.93,166.06
71.388,33.81,166.664
71.764,33.92,167.344
72.113,34.03,166.264
72.462,34.21,164.521
72.813,34.15,167.627
73.161,34.11,165.932
73.511,33.89,166.162
73.86,33.81,163.187
74.236,33.81,162.582
74.585,33.81,163.968
74.935,33.38,164.094
75.283,33.51,164.623
75.633,33.59,162.682
76.009,33.84,165.43
76.359,33.39,163.741
76.76,33.13,164.144
77.127,33.49,164.699
77.488,33.37,163.237
77.835,33.32,164.597
78.185,33.25,163.463
78.562,33.09,163.388
78.911,33.15,165.43
79.262,33.02,161.246
79.664,32.99,164.018
80.012,33.08,164.094
80.361,33.05,164.648
80.712,32.91,162.632
81.061,33,162.557
81.437,32.86,160.689
81.786,32.98,163.363
82.135,33.07,160.714
82.483,33.05,161.37
82.834,33,162.732
83.183,32.96,165.13
83.56,33.41,163.287
83.961,33.32,162.457
84.326,32.9,161.321
84.688,33.05,164.195
85.035,32.8,162.807
85.385,32.93,163.363
85.763,33.41,163.187
86.164,32.83,163.363
86.53,32.66,162.001
86.889,32.81,161.952
87.239,32.61,159.886
87.588,32.49,159.475
87.965,33,160.492
88.366,32.89,161.827
88.733,32.81,158.598
89.093,32.99,158.72
89.44,33.06,159.23
89.791,32.68,162.607
90.167,32.55,162.782
90.569,32.68,157.99
90.935,32.64,158.574
91.295,32.91,158.96
91.645,32.58,161.37
91.992,32.83,162.001
92.369,32.67,161.976
92.718,32.98,159.861
93.068,32.72,161.221
93.417,32.59,159.91
93.767,32.7,159.959
94.143,32.5,162.201
94.492,32.72,158.622
94.842,32.75,161.271
95.243,32.67,160.615
95.593,32.82,160.368
95.942,32.72,157.917
96.294,32.59,160.591
96.641,32.87,160.591
96.991,32.62,160.739
97.368,32.9,161.197
97.717,32.47,158.598
98.12,32.48,156.7
98.468,32.48,160.788
98.817,32.45,159.812
99.167,32.59,160.566
99.516,32.34,158.476
99.866,32.34,157.406
100.243,32.45,155.099
100.59,32.01,156.043
100.94,32.42,158.208
101.289,32.31,158.063
101.64,32.38,155.755
101.987,32.12,155.827
102.338,32.05,155.731
102.697,32.11,160.107
103.053,32.72,160.764
103.411,32.63,157.237
103.761,32.67,158.985
104.111,32.46,156.821
104.497,32.73,160.665
104.852,32.69,159.328
105.213,32.6,159.935
105.588,32.77,157.844
105.937,32.52,156.46
106.287,32.6,145.486
106.635,41.67,143.601
106.986,40.46,130.894
107.334,46.27,132.834
107.683,46.5,132.508
108.06,46.63,99.003
108.409,64.22,83.82
108.759,103.57,12.309
109.16,120.03,12.209
109.509,120.04,0.868
109.859,120.03,2.879
110.207,120.06,3.634
110.557,120,1.549
110.933,120.02,1.984
111.282,75.9,0.56
111.632,46.52,0.05
111.98,49.12,0.018
112.332,39.03,0
112.679,20.4,0
113.057,15.18,0
113.407,14.14,0
113.808,8.75,0
114.157,1.04,0
114.506,0,0
